# Small subsample from the center of the m4l packing from the N-RLP dataset of jammed spheres
# available at http://www-levich.engr.ccny.cuny.edu/webpage/hmakse/software-and-data/
# Data format for the particles: particle ID, x-coordinate, y-coordinate, z-coordinate, radius of the particle
# DEM parameters on the line below: Number of particles, grain size mean, grain size range, stress/strain mask, stress/strain rates, Young modulus, density, Poisson ratio, friction angle, damping coefficient 
1638 10 0 -1 -1 -1 -1 -1 -1 -1
# Limits on the line below: x_min, x_max, y_min, y_max, z_min, z_max (used for subsampling)
102.808 308.219 102.814 308.225 102.764 308.175
0	148.16	183.68	101.2	10
1	178	260.78	131.29	10
20	271.82	205.77	248.26	10
24	212.12	114.93	188.94	10
25	215.62	152.76	316.37	10
30	302.08	149.71	142.61	10
39	283.89	178.16	193.53	10
40	217.73	201.1	102	10
63	136.1	107.23	99.344	10
64	273.1	272.12	274.08	10
74	179.34	111.8	128.72	10
81	313.04	144.2	262.23	10
94	117.83	276.95	117.78	10
103	134.15	150.57	315.69	10
108	168.83	168.25	269.3	10
120	155	288.02	115.94	10
125	284.21	286.23	315.43	10
127	270.01	113.65	285.75	10
145	129.76	156.83	117.09	10
156	293.73	154.9	96.067	10
159	97.271	227.02	235.61	10
166	120.85	142.85	202.41	10
178	245.1	297.53	255.51	10
181	268.79	217.52	119.55	10
191	177.36	185.29	263.21	10
194	144.04	245.14	234.15	10
205	242.69	220.48	156.55	10
208	124.52	243.25	102.78	10
217	100.26	181.96	100.2	10
220	162.95	195.54	142.1	10
221	243.51	167.48	99.74	10
242	282.45	236.24	175.21	10
243	119.11	300.42	155.72	10
250	251.72	133.17	310.25	10
254	205.04	249.47	289.99	10
257	148.1	175.41	299.5	10
259	306.87	250.18	255.48	10
274	154.58	308.01	115.96	10
291	100.08	97.804	187.45	10
306	234.31	312.81	138.6	10
310	229.77	195.64	211.99	10
323	316.73	147.97	221.57	10
324	192.68	147.71	233.77	10
325	249.98	268.36	163.05	10
330	204.88	175.28	96.997	10
340	160.55	178.84	254.49	10
348	202.73	180.29	168.64	10
350	136.86	182.14	314.61	10
355	163.89	317.92	140.84	10
367	134.86	187.34	223.45	10
368	248.93	199.8	143.63	10
377	172.47	257.71	302.77	10
380	170.52	283.29	131.44	10
385	233.28	305.87	119.87	10
389	134.72	309.92	231.55	10
391	235.18	288.16	202.52	10
393	214.74	180.12	206.88	10
412	123.43	307.66	266.63	10
420	127.45	268.41	266.97	10
431	242.4	237.95	255.4	10
434	200.11	196.53	180.01	10
436	111.63	299.37	137.2	10
451	183.01	290.65	194.78	10
461	215.04	259.57	275.92	10
464	220.54	309.57	189.22	10
465	229.97	263.75	195.07	10
466	124.84	192.92	132.57	10
470	154.66	228.4	133.29	10
475	162.2	289.66	227.51	10
485	310.12	118.23	310.91	10
486	263.22	93.393	191.71	10
490	173.11	154.06	186.42	10
491	177.51	163.17	286.59	10
501	285.06	258.63	164.69	10
515	181.55	168.61	305.4	10
518	248.75	187.43	310.85	10
519	172.47	181.5	152.7	10
520	252.25	93.629	317.46	10
541	97.664	211.57	200.13	10
568	114.25	217.89	252.47	10
573	233.85	140.44	288.99	10
582	277.91	153.33	213.7	10
603	165.43	171.85	222.72	10
607	159.8	150.94	170.23	10
610	257.85	208.46	234.21	10
613	313	283.76	261.45	10
616	234.98	185.87	228.64	10
618	124.74	126.97	190.89	10
628	276.39	263.54	311.41	10
631	196.54	298.31	207.36	10
635	213.74	230.89	277.24	10
642	195.25	296.09	290.05	10
647	202.1	190.89	109.18	10
650	109.47	100.14	204.98	10
656	162.81	112.98	275.12	10
658	138.6	131.7	217.7	10
661	226.56	139.3	234.79	10
662	145.7	140.13	296.55	10
667	237.4	170.45	291.33	10
670	162.76	261.15	144.24	10
680	231.94	239.64	130.99	10
682	215.45	103.53	252.26	10
690	176.33	134.12	302.78	10
692	246.22	135.56	229.24	10
699	149.17	142.76	155.39	10
702	187.8	214.46	136.21	10
703	166.11	106.35	244.76	10
709	211.95	167.82	145.74	10
710	139.83	240.69	179.95	10
713	217.05	244.26	166.98	10
716	182.24	215.62	215.47	10
720	286.29	142.7	152.68	10
722	111.73	106.7	276.97	10
731	302.61	263.25	146	10
744	133.13	231.79	317.01	10
746	146.31	194.9	242.54	10
748	107.93	303.56	192.27	10
752	270.21	299.55	134.48	10
754	137.65	158.45	297.64	10
756	229.98	146.95	201.26	10
765	315.39	159.56	282.89	10
778	181.1	134	129.03	10
784	225.79	256.21	121.63	10
805	224.77	170.26	177.17	10
806	269.97	271.52	162.19	10
811	160.74	235.98	240.25	10
829	306.29	207.36	304.81	10
846	242.19	106.17	305.13	10
856	284.48	185.69	107.69	10
866	231.39	123.27	223.85	10
870	312.83	128.27	107.18	10
873	166.24	271.29	220.71	10
874	123.46	283.68	245.85	10
875	140.6	222.04	170.14	10
883	99.32	107.39	293.06	10
897	108.85	316.71	146.76	10
901	105.39	240.51	111.15	10
906	153.75	152.49	191.21	10
907	194.14	106.55	146.6	10
923	205.33	299.65	145.6	10
933	192.16	99.282	94.191	10
941	220.05	179.91	288.22	10
942	121.58	151.62	287.6	10
944	297.75	247.79	276.58	10
950	212.29	122.48	105.98	10
955	301.98	129.97	216.75	10
956	300.66	170.27	186.01	10
958	115.08	292.01	279.58	10
962	311.47	226.67	304.88	10
964	220.12	181.31	108.99	10
965	237.99	159.01	117	10
970	132.63	223.59	190.91	10
983	117.55	113.57	256.75	10
996	170.56	240.31	186.82	10
1005	297.05	300.76	279.9	10
1011	201.77	142.7	138.15	10
1018	196.39	161.49	171.12	10
1024	191.18	306.49	185.69	10
1029	273.85	164.56	123.05	10
1031	219.23	119.12	312.43	10
1037	304.32	155.97	172.52	10
1041	297.66	305.86	174.13	10
1045	169.25	278.45	261.9	10
1046	176.01	292.07	293.76	10
1058	109.45	300.71	217.41	10
1064	125.89	102.75	219.61	10
1087	140.48	93.282	254.78	10
1094	293.36	104.97	126.85	10
1096	315.19	295.62	145.95	10
1111	164.38	208.34	181.58	10
1115	101.38	251.81	253.68	10
1116	252.79	136.45	283.95	10
1118	197.71	141.04	266.45	10
1122	304.96	266.26	234.49	10
1127	94.947	270.5	256.75	10
1129	238.71	142.65	149.41	10
1144	285.56	310.92	189.23	10
1148	144.56	157.99	231.63	10
1156	155.29	289.21	304.76	10
1166	122.1	250.09	131.5	10
1167	229.95	265.6	292.69	10
1173	267.13	130.21	231.01	10
1175	183.28	180.13	226.32	10
1177	100.24	188.03	242.69	10
1187	124.94	167.09	242.55	10
1191	145.52	181.75	280.71	10
1197	126.82	164.12	202.86	10
1198	251.94	206.65	303.9	10
1202	272.05	303.48	234.56	10
1209	263.61	269.75	126.21	10
1226	156.87	205.31	114.39	10
1227	116.81	291.23	299.49	10
1228	310.82	204.8	158.85	10
1229	187.41	208.8	170.61	10
1239	279.43	181.4	289.78	10
1241	153.64	194.22	223.63	10
1246	155.6	129.84	205.44	10
1251	257.72	103.78	208.81	10
1254	215.43	194.87	192.77	10
1263	196.08	140.42	163.76	10
1273	170.58	296.53	270.33	10
1279	290.14	200.58	195.98	10
1294	212.92	96.886	290.87	10
1300	200.15	126.11	150.4	10
1304	286.95	275.65	198.06	10
1315	256.88	93.149	225.73	10
1317	271.44	93.386	167.07	10
1323	203.87	109.14	168.36	10
1325	194.35	133.73	197.1	10
1327	283.16	256.4	202.51	10
1335	131.41	301.7	191.29	10
1336	293.7	112.74	177.52	10
1360	190.27	305.36	117.48	10
1371	221.47	291.39	225.58	10
1389	239.1	114.73	207.49	10
1393	193.6	289.71	240.37	10
1396	134.9	133.83	112.17	10
1399	240.95	298.98	302.18	10
1407	318.19	152.89	312.81	10
1410	208.04	182.94	133.14	10
1413	130.57	200.88	256.25	10
1420	211.9	112.67	139.75	10
1422	277.94	280	253.74	10
1425	157.58	100.11	154.42	10
1426	192.23	134.17	248.48	10
1432	228.57	197.93	264.48	10
1441	265.93	209.58	267.01	10
1473	230.18	159.84	143.78	10
1477	247.13	150.24	180.7	10
1480	211.21	178.88	317.28	10
1481	149.92	304.16	95.336	10
1484	247.42	254.41	197.97	10
1498	96.864	207.61	240.41	10
1502	111.67	124.78	285.52	10
1511	245.49	117.25	174.38	10
1514	209.33	254.35	213.91	10
1518	169.56	144.01	203.34	10
1532	167.32	274.32	108.15	10
1534	234.25	131.37	165.76	10
1544	302.92	215.35	266.22	10
1558	223.63	95.9	192.24	10
1566	224.64	251.17	305.48	10
1573	269.82	189.63	274.29	10
1583	189.48	125.65	290.32	10
1584	155.65	224.7	266.11	10
1585	236.59	163.22	191.68	10
1589	247.8	160.13	153.24	10
1593	125.66	170.31	102.89	10
1606	109.16	128.46	221.35	10
1615	140.59	305.41	298.91	10
1624	195.1	198.34	292.52	10
1628	306.78	171.08	296.79	10
1630	163.17	245.38	204.71	10
1639	168.84	299.51	317.58	10
1647	178.05	172.94	134.56	10
1651	92.813	143.53	190.28	10
1680	114.52	258.3	111.34	10
1684	303.8	131.27	296.52	10
1685	284.14	243.53	259.38	10
1686	126.59	225.59	278.55	10
1695	308.99	93.765	132.32	10
1697	200.27	281.06	197.96	10
1702	194.6	231.1	270.65	10
1706	190.8	247.75	104.37	10
1709	129.02	268.18	101.74	10
1711	298.07	112.74	238.72	10
1718	211.64	170.92	254.8	10
1722	252.87	235.17	198.15	10
1723	293.44	294.26	245.24	10
1727	171.23	198.11	293.57	10
1757	253.8	310	291.53	10
1759	199.13	168.35	202.68	10
1760	153.6	165.05	93.55	10
1765	250.44	184.97	106.54	10
1769	168.4	93.06	125.26	10
1771	164.13	179.38	204.24	10
1777	177.25	255.63	214.53	10
1779	294.23	106.19	196.41	10
1783	313.55	238.63	208.17	10
1785	204.44	257.59	93.547	10
1786	173.46	228.09	140.09	10
1798	141.4	104.36	184.55	10
1805	304.9	228.82	286.12	10
1808	119.82	203.9	289.19	10
1811	111.8	236.5	245.57	10
1820	244.73	112.05	105.71	10
1821	150.35	214.94	194.22	10
1825	119.89	274.9	137.57	10
1830	108.97	117.08	117.88	10
1834	128.43	206.28	223.76	10
1845	244.07	173.27	138.63	10
1851	237.01	210.74	201.06	10
1856	315.62	99.998	317.45	10
1858	154.06	144.67	127.81	10
1861	114.11	267.15	252.12	10
1866	144.66	153.03	251.01	10
1867	288.98	253.15	183.65	10
1872	259.81	252.51	94.86	10
1873	240	243.46	236.32	10
1874	301.99	136.06	127.99	10
1878	119.72	296.81	119.09	10
1886	136.3	250.6	162.93	10
1888	157.17	94.131	270.27	10
1906	128.69	93.203	168.41	10
1909	291.25	172.64	245.73	10
1911	106.15	203.18	171.09	10
1912	118.11	127.46	142.09	10
1934	308.98	161.63	128.05	10
1938	279.87	182.96	174.54	10
1945	303.02	116.72	94.129	10
1965	254.94	286.99	131.49	10
1970	247.06	230.58	121.53	10
1983	313.84	275.9	179.77	10
1985	192.46	198.06	224.71	10
2003	93.835	160.27	269.76	10
2005	257.66	269.93	224.2	10
2020	264.73	109.51	260.58	10
2031	188.3	296.89	135.49	10
2039	112.66	317.02	206.28	10
2043	118.54	166.25	130.69	10
2044	212.04	267.42	228.81	10
2047	103.34	280.54	224.62	10
2048	100.95	124.95	302.48	10
2050	179.78	190.6	209.64	10
2056	111.36	195.5	257.54	10
2057	197.53	248.68	168.09	10
2058	285.89	227.81	147.8	10
2065	196.1	295.42	101.05	10
2072	279.29	140.54	311.79	10
2082	99.734	189.75	125.7	10
2084	135.2	260.19	224.39	10
2086	197.62	97.674	225.6	10
2097	254.48	309.17	242.23	10
2103	135.81	238.95	266.86	10
2107	294.58	121.79	116.1	10
2119	222.66	156.32	284.24	10
2126	116.92	183.14	315.68	10
2130	208.51	282.33	136.12	10
2131	194.3	203.44	204.71	10
2136	97.821	144.78	223.61	10
2183	138.85	267.02	205.95	10
2189	230.03	267.15	316.23	10
2192	249.33	283	189.36	10
2193	237.7	229.49	103.89	10
2208	293.75	285.73	120.8	10
2212	124.03	233.23	170.21	10
2213	122.16	192.85	177.15	10
2215	264.9	178.55	199.79	10
2218	237	208.69	96.499	10
2229	276	155.29	105.32	10
2231	134.11	153.03	147.17	10
2236	211.84	212.5	201.5	10
2244	144.8	293.72	237.56	10
2248	209	262.98	160.11	10
2251	184.7	276.83	226.07	10
2253	169.92	146.19	115.72	10
2270	290.39	229.67	272.38	10
2272	201.42	226.96	128.58	10
2274	214.37	166.05	301.48	10
2277	117.37	180.81	279.67	10
2284	201.82	145.57	303.8	10
2295	143.33	138.25	237.6	10
2296	301.31	195.47	267.74	10
2297	256.23	154.67	274.32	10
2305	178.55	243.49	269.33	10
2327	278.49	216.18	281.1	10
2332	213.08	115.36	225.3	10
2337	303.22	139.76	314.61	10
2344	122.25	140.22	156.93	10
2350	196.65	136.22	114.52	10
2351	193.55	264.74	207.37	10
2354	230.75	173.51	158.36	10
2355	307.38	171.4	102.43	10
2377	246.48	130.94	112.03	10
2391	92.917	246.53	236.35	10
2407	214.24	276.42	286.67	10
2408	316.93	221.96	172.5	10
2411	138.36	302.22	254.48	10
2415	95.321	233.06	216.65	10
2429	257.69	125.45	127.66	10
2444	224.53	101.79	234.53	10
2448	213.55	285.48	105.32	10
2453	276.8	200.22	229.7	10
2454	131.92	167.1	280.27	10
2455	176.37	113.21	298.87	10
2459	101.26	142.01	244.19	10
2462	104.86	168.05	216.53	10
2472	144.74	140.38	178.1	10
2479	158.5	193.49	308.29	10
2484	180.76	230.81	100.88	10
2488	124.97	241.66	194.75	10
2491	206.68	247.93	116.52	10
2496	175.42	126.28	196.17	10
2497	180.37	163.21	116.81	10
2515	273.96	297.43	263.65	10
2517	162.22	199.59	206.38	10
2519	232.76	212.2	305	10
2521	238.59	234.06	278.03	10
2547	147.22	223	151.05	10
2550	179.05	271.62	149.26	10
2554	101.38	314.1	128.39	10
2556	291.08	124.45	310.36	10
2560	93.067	157.67	296.57	10
2568	134.82	156.52	186.18	10
2572	202.8	245.49	135.98	10
2583	131.24	314.58	121.56	10
2588	259.2	300.27	191.42	10
2591	248.54	153.9	292.77	10
2592	113.49	93.3	292.35	10
2593	107.26	242.7	164.81	10
2606	172.29	119.85	177.5	10
2617	121.99	139.99	303.86	10
2623	161.72	140.3	246.03	10
2633	188.61	106.12	209.87	10
2634	260.47	110.93	311.7	10
2635	186.15	220.71	117.28	10
2640	153.8	261.03	241.38	10
2641	107.57	163.5	97.758	10
2648	99.725	296.48	119.07	10
2650	109.88	306.35	310.6	10
2668	202.44	175.19	280	10
2670	206.83	106.63	270.04	10
2671	309.43	173.11	203.76	10
2672	126.29	181.61	193.18	10
2674	179.66	235.98	167	10
2677	157.97	300.86	250.81	10
2687	146.99	130.1	139.54	10
2689	121.31	230.34	117.71	10
2710	304.68	217.26	195.65	10
2713	93.649	200.51	96.69	10
2715	187.83	269.59	314.72	10
2718	195.63	214.33	187.99	10
2727	135.79	117.03	249.29	10
2735	104.79	149.58	154.21	10
2736	279.47	130.77	254.43	10
2752	278.55	262.45	146.17	10
2753	241.49	211.86	287.01	10
2762	178.79	273.49	183.24	10
2779	288.7	107.13	146.18	10
2787	244.03	134.11	207.37	10
2791	219.36	103.47	123.64	10
2794	231.46	293.18	100.84	10
2796	205.67	103.87	109.06	10
2797	290.4	175.52	159.06	10
2806	137.13	202.45	119.99	10
2813	201.75	276.77	302.29	10
2814	288.25	258.39	226.83	10
2815	314.05	243.95	175.74	10
2816	177.41	231.31	305.88	10
2827	299.18	132.67	237.5	10
2831	245.61	118.42	240.78	10
2833	134.33	142.44	130.21	10
2839	131.68	174.26	167.05	10
2842	165.23	175.72	314.51	10
2843	137.53	282.71	281.45	10
2848	151.73	268.77	304.76	10
2850	310.13	259.94	310.3	10
2856	107.44	217.37	111.45	10
2859	239.49	278.33	255.96	10
2863	190.25	238.61	183.76	10
2865	201.99	215.59	218.63	10
2867	193.06	96.364	259.8	10
2872	188.7	122.01	166.28	10
2881	204.87	125.41	276.65	10
2892	205.66	135.86	220.36	10
2897	199.95	101.65	128.1	10
2905	163.64	159.21	252.23	10
2909	292.84	105.89	258.28	10
2911	236.47	293.08	136.12	10
2916	268.67	223.18	138.74	10
2924	137.17	126.8	156.65	10
2932	306.15	94.647	268.29	10
2936	315.33	107.57	280.48	10
2947	249.54	200.41	164.95	10
2961	263.1	127.38	269.42	10
2962	143.15	161.79	131.42	10
2982	317.78	264.3	122.96	10
2983	117.91	280.5	156.97	10
3002	128.83	189.64	106.96	10
3005	259.65	161.48	214.37	10
3006	175.12	149.25	272.34	10
3021	106.71	257.67	289.31	10
3024	97.688	213.13	220.06	10
3027	238.32	170.71	246.37	10
3033	267.98	239.82	248.19	10
3041	164.15	276.28	290.62	10
3050	142.48	202.85	100.73	10
3055	113.4	238.55	286.16	10
3056	142.81	134.03	257.15	10
3060	296.75	147.02	190.64	10
3069	176.73	162.01	151.25	10
3074	210	263.4	196.09	10
3095	251.31	302.89	111.75	10
3101	252.03	227.6	234.45	10
3105	173.29	222.89	231.81	10
3107	285.72	161.26	261.22	10
3114	224.84	142.04	107.45	10
3116	225.06	227.18	204.56	10
3121	153.51	314.37	236.76	10
3129	204.11	153.26	249.21	10
3133	199.59	314.1	94.827	10
3138	177.23	111.49	99.501	10
3140	122.37	169.15	150.11	10
3142	268.29	202.1	132.26	10
3147	283.17	240.85	316.81	10
3150	160.82	256	93.18	10
3170	290.8	210.84	244.31	10
3171	309.92	287.27	236.31	10
3172	303.93	281.99	279.19	10
3181	151.83	109.34	258.44	10
3183	228.52	290.07	177.42	10
3189	274.25	110.47	132.76	10
3194	284.01	120.34	99.179	10
3199	267.38	209.75	178.17	10
3203	179.27	262.5	97.323	10
3210	151.5	237.64	163.99	10
3213	259.44	300.54	309.66	10
3214	205.89	256.08	247.85	10
3247	187.43	181.76	119.25	10
3249	316.41	267.14	250.87	10
3257	169.77	212.83	127.7	10
3265	291.16	152.77	126.14	10
3268	299.68	175.69	139.52	10
3283	284.02	224.38	222.75	10
3287	264.69	164.24	143.11	10
3289	124.57	180.89	261.01	10
3294	176.85	209.64	197.16	10
3297	115.71	259.68	193.52	10
3310	197.06	250.95	270.73	10
3316	275.98	159.79	191.61	10
3319	252.66	314.62	203.72	10
3320	93.827	204.97	137.25	10
3330	238.29	262.21	92.834	10
3333	282.35	163.82	230.14	10
3339	188.02	221.68	254.29	10
3343	210.16	197.62	215.41	10
3345	242.24	253.27	282.85	10
3371	102.81	144.17	307.72	10
3377	278.34	244.89	110.93	10
3380	204.31	99.7	199.28	10
3405	120.31	226.06	137.22	10
3426	124.44	293.09	228.23	10
3427	313.53	251.79	223.23	10
3429	162.56	317.5	198.34	10
3434	289.23	184.63	228.26	10
3440	185.52	269.55	114.97	10
3445	244.29	167.96	309.94	10
3449	190.39	115.98	256.59	10
3453	129.72	103.28	268.91	10
3467	265.29	108.45	178.71	10
3475	134.89	197.14	301.27	10
3480	285.98	217.79	130.29	10
3483	117.26	128.97	104.1	10
3490	185	98.083	115.3	10
3491	130.26	217.04	240.52	10
3507	97.528	192.43	153.84	10
3514	215.27	195	306.16	10
3518	154.7	248.64	304.25	10
3521	291.91	156.06	312.09	10
3524	303.69	173.17	274.07	10
3529	293.69	300.9	107.78	10
3542	128.08	197.55	205.68	10
3553	237.4	226.56	188.83	10
3555	183.72	263.08	262.08	10
3560	307.33	191.32	223.01	10
3567	281.96	101.73	296.48	10
3575	109.86	143.17	268.8	10
3582	217.26	130.91	133.55	10
3587	251.53	276.92	95.732	10
3590	221.63	289.93	123.07	10
3595	224.56	299.98	271.28	10
3597	105.3	115.86	172.3	10
3603	275.62	221.17	163.97	10
3611	120.9	144.63	222.33	10
3617	158.66	308.05	178.64	10
3626	302.21	230.61	136.58	10
3628	265.2	261.43	289.02	10
3640	190.94	287.93	176.62	10
3642	169.59	257.2	176.17	10
3651	238.43	109.44	124.51	10
3652	143.68	248.22	99.948	10
3658	109.98	96.201	119.01	10
3660	280.42	237.35	207.95	10
3661	108.47	267.32	210.52	10
3667	220.17	311.07	152.63	10
3675	157.85	280.34	244.67	10
3677	265.24	138	113.89	10
3684	283.46	141.58	228.93	10
3695	294.03	288.03	295.48	10
3699	270.65	227.1	193.82	10
3701	110.27	220.63	303.67	10
3702	261.46	288.49	286.49	10
3703	265.53	95.043	279.95	10
3706	274.26	123.83	147.64	10
3708	160.45	124	223.94	10
3725	128	186.85	242.23	10
3730	101.89	301.87	268.23	10
3734	268.4	126.88	204.88	10
3738	207.25	142.86	97.968	10
3740	96.313	168.31	182.64	10
3747	153.56	291.59	168.49	10
3754	175.84	234.57	215.78	10
3761	249.09	312.84	223.32	10
3769	241.08	213.33	267.07	10
3777	184.19	149.93	312.16	10
3785	204.2	204.39	261.59	10
3786	166.22	173.17	106.77	10
3790	159.7	124.21	297.74	10
3796	189.67	270.92	166.18	10
3800	288.54	213.82	298.23	10
3802	187.39	214.62	301.2	10
3811	296.05	267.02	127.49	10
3813	128.95	105.96	291.53	10
3818	146.56	105.91	309.85	10
3839	143.66	132.21	314.81	10
3843	260.09	185.3	172.72	10
3856	129.7	161.56	261.17	10
3862	105.84	175.18	256.95	10
3865	210.2	144.47	202.89	10
3867	240.18	208.18	224.85	10
3882	153.1	300.74	141.13	10
3891	178.21	171	169.06	10
3895	97.565	136.42	118.2	10
3898	304.37	179.55	120.46	10
3908	155.38	126.17	168.88	10
3914	233.23	202.14	131.47	10
3916	235.45	124.77	302.19	10
3921	123.65	312.08	102.81	10
3928	186.24	241.35	231.46	10
3930	104.01	304.15	291.16	10
3941	149.02	231.03	114.28	10
3948	236.71	257.32	145.61	10
3956	273.44	287.31	97.854	10
3960	303.82	300.25	130.17	10
3962	205.41	293.19	256.49	10
3967	202.19	228.79	171.07	10
3969	211.21	292.21	165.98	10
3970	226.02	101.08	269.19	10
3991	270.93	196.31	300.93	10
3993	143.74	307.19	279.24	10
3996	314.03	215.71	130.38	10
4011	108.05	265.92	271.14	10
4015	251.96	183.28	238.89	10
4022	316.01	193.22	174.31	10
4027	178.53	193.22	105.49	10
4030	171.42	262.71	277.85	10
4032	116.9	147.87	138.39	10
4035	178.74	194.56	184.17	10
4041	120.45	120.08	302.87	10
4046	142.36	99.276	125.82	10
4047	257.69	298.5	157.46	10
4061	182.08	204.72	263.07	10
4073	257.01	153.17	314.4	10
4077	313.04	135.69	193.1	10
4083	169.52	252.26	232.67	10
4098	128.69	178.83	296.14	10
4103	314.28	232.47	247.96	10
4106	183.27	273.15	295.58	10
4117	143.93	220.96	226.44	10
4124	309.67	275.42	160.21	10
4130	243.07	169.37	265.75	10
4137	249.71	191.31	291.26	10
4143	236	200.1	242.66	10
4147	280.33	180.16	141.81	10
4163	116.8	134.65	123.38	10
4165	291.83	191.7	130.21	10
4166	230.34	208.6	166.87	10
4175	251.8	221.68	174.32	10
4178	212.68	225.54	232.29	10
4179	183.12	142.45	101.17	10
4192	315.48	139.46	281.72	10
4195	141.42	264.26	132.03	10
4208	223.79	254.87	239.03	10
4217	245.92	253.67	128.23	10
4220	97.719	190.46	312.04	10
4228	303.34	208.29	177.82	10
4234	291.36	266.45	279.95	10
4235	180.21	131.53	264.58	10
4236	123.76	287.47	101.84	10
4248	264.59	286.11	212.24	10
4272	131.08	187.14	150.67	10
4273	201.9	286.37	222.48	10
4274	231.4	286.01	290.33	10
4280	292.25	193.57	150.65	10
4282	292.5	162.52	202.55	10
4291	306.91	275.96	199.26	10
4309	195.82	163.87	133.23	10
4333	103.59	154.29	124.92	10
4340	233.57	100.18	288.04	10
4344	257.8	241.66	287.64	10
4360	120.02	118.06	208.16	10
4362	275.12	307.98	154.98	10
4367	221.5	263.99	257.52	10
4370	142.71	276.98	257.3	10
4379	137.73	212.8	289.16	10
4382	124.85	141.99	176.71	10
4391	265.25	232.49	313.86	10
4401	256.01	173.6	122.59	10
4403	144.67	208.68	270.87	10
4405	113.14	299.92	251.33	10
4408	309.18	193.42	140.01	10
4409	149.17	268.33	177.84	10
4410	180.36	254.52	159.53	10
4414	160.32	260.63	260.29	10
4415	292.16	126.83	163.41	10
4429	180.03	151.36	218.71	10
4434	174.04	99.404	284.59	10
4437	251.39	215.66	108.51	10
4439	237.31	271.57	178.19	10
4454	104.67	231.5	148.44	10
4465	269.33	169.19	252.61	10
4471	271.56	169.79	272.48	10
4487	182.46	231.64	286.53	10
4489	286.05	293.26	144.94	10
4490	310.16	126.09	154.72	10
4491	103.42	171.73	306.31	10
4494	225.13	148.48	128.12	10
4503	254.05	266.12	273.09	10
4508	246.13	277.17	309.89	10
4511	259.33	231.46	158.58	10
4512	174.15	109.55	160.46	10
4513	235.27	196.62	112.35	10
4517	160.97	204.54	259.86	10
4518	152.38	104.4	205.62	10
4526	149.37	304.01	316.83	10
4532	254.03	195.44	197.19	10
4533	194.15	128.04	309.62	10
4546	205.66	145.78	284.17	10
4549	154.99	183.12	119.99	10
4551	124.95	307.88	286.7	10
4553	226.13	226.26	292.41	10
4559	234.08	258.77	214	10
4566	236.33	233.67	170.17	10
4570	210.78	205.68	233.7	10
4579	290.52	301.99	227.03	10
4589	116.35	253.19	150.4	10
4610	266.9	236.9	268.69	10
4613	166.1	244.71	131.6	10
4614	99.721	287.59	205.87	10
4630	262.8	165.23	234.13	10
4632	262.18	180.23	220.84	10
4648	96.032	98.892	138.09	10
4649	150.29	292.55	267.3	10
4660	224.79	185.08	249.63	10
4661	231.75	100.82	141.27	10
4664	168.7	230.46	117.81	10
4666	191.24	117	113.47	10
4673	240.87	151.04	217.52	10
4674	296.61	242.15	218.67	10
4681	162.7	283.15	149.85	10
4684	253.82	309.04	140.91	10
4691	192.23	207.39	102.11	10
4699	305.01	249.33	130.13	10
4700	184.24	141.29	147.67	10
4715	303.69	194.89	242.35	10
4717	297.75	242.9	164.19	10
4722	158.05	118.09	98.48	10
4732	162.89	161.97	300.18	10
4737	154.59	143	221.78	10
4741	229.19	278.54	238.82	10
4748	315.5	302.94	266.54	10
4757	129.5	269.56	311.12	10
4761	201.14	300.26	308.7	10
4770	201.04	230.59	108.31	10
4776	166.97	173.08	185.47	10
4778	227.27	214.95	112.82	10
4779	284.74	225.21	110.24	10
4788	222.11	116.62	171.7	10
4797	255.28	223.06	277.25	10
4805	101.61	192.06	274.67	10
4808	309.34	191.98	197.14	10
4816	182.58	210.14	282.32	10
4818	142.75	170.96	149.19	10
4824	94.53	317.65	278.06	10
4826	119.41	159.73	305.75	10
4834	102.94	267.59	153.98	10
4836	93.215	233.39	196.76	10
4843	156.63	105.13	292.59	10
4858	306.4	135.77	174.24	10
4859	173.99	101.72	262.54	10
4860	99.215	118.44	135.29	10
4874	115.53	199.63	148.95	10
4877	307.95	265	268.87	10
4884	255.56	265.05	183.12	10
4886	312.78	292.78	112.85	10
4887	146.08	250.19	145.49	10
4900	194.65	316.25	148.8	10
4906	187.67	312.88	282.29	10
4914	279.73	208.79	147.24	10
4917	250.15	108.63	140.69	10
4919	317.84	241.81	108.45	10
4923	254.82	199.95	94.026	10
4935	233.91	192.96	154.94	10
4939	267.88	268.56	103.66	10
4963	159.95	288.13	207.7	10
4966	197.67	237.85	247.54	10
4967	202.61	221.58	312.15	10
4968	217.67	162.39	198.09	10
4974	158.24	190.76	188.88	10
4983	124.86	164.23	222.76	10
4984	103.07	151.46	205.51	10
4987	201.9	214.05	278.97	10
4994	138.47	155.45	166.54	10
5007	104.41	190.37	203.71	10
5013	301.15	254.18	111.05	10
5015	207.23	276.31	177.43	10
5020	258.9	266.07	145.29	10
5021	301.56	233.78	116.84	10
5026	171.49	305.91	234.54	10
5034	132.42	288.65	168.07	10
5037	251.32	196.92	272.12	10
5055	167.31	185.75	236.98	10
5061	270.23	249.75	225.97	10
5069	271.17	211.62	214.26	10
5070	289.12	135.62	271.26	10
5071	263.84	164.16	176.2	10
5072	185.4	251.68	286.96	10
5074	303.97	210.01	229.26	10
5098	268.78	219.73	99.5	10
5100	307.15	312.82	229.52	10
5106	305.05	151.18	297.83	10
5118	233.35	152.29	166.09	10
5121	275.25	192.62	209.53	10
5131	241.14	288.88	273.11	10
5145	260.69	145.26	149.71	10
5157	143.49	113.77	280.24	10
5159	188.64	282.17	258.74	10
5161	299.88	298.1	311.74	10
5165	300.62	230.02	180.8	10
5177	265.92	247.86	140.93	10
5187	164.53	204.55	161.94	10
5211	145.03	316.45	207.93	10
5212	293.03	283.28	97.966	10
5216	189.55	188.98	137.78	10
5217	221.3	246.3	200.06	10
5218	147.11	103.73	239.07	10
5219	281.04	256.39	94.789	10
5251	179.42	256.43	194.67	10
5252	265.86	280.48	309.95	10
5254	252.5	100.61	165.48	10
5259	98.58	269.99	193.31	10
5261	178.51	291.72	214.23	10
5262	276.57	294.82	116.12	10
5273	186.67	241.2	122.81	10
5287	282.32	292.44	182.3	10
5291	146.35	231.86	282.31	10
5294	113.23	225.47	195.41	10
5299	317.1	158.51	238.56	10
5301	207.99	240.28	307.51	10
5312	199.26	197.64	154.31	10
5337	268.05	303.58	173.79	10
5342	310.65	244.74	148.76	10
5356	248.3	292.93	221.64	10
5357	260.74	253.57	114.81	10
5359	194.47	307.94	248.55	10
5368	119.03	106.76	238	10
5375	197.16	200.93	312.24	10
5379	211.92	266.11	110.02	10
5380	92.963	153.98	107.55	10
5394	249.58	106.65	276.65	10
5395	139.97	121.08	298.61	10
5401	178.75	287.98	160.76	10
5409	139.31	242.67	213.28	10
5420	296.2	104	314.83	10
5426	185.72	186.6	245.09	10
5429	218.17	166.62	229.56	10
5439	178.27	94.073	222.03	10
5442	165.5	179.21	290.4	10
5445	290.63	203.81	215.71	10
5450	175.08	307.11	165.64	10
5453	285.85	286.7	215.03	10
5454	146.57	230.48	302.26	10
5455	295.13	279.68	173.77	10
5456	131.23	210.1	142.33	10
5460	230.65	311.35	256	10
5466	317.2	139.09	243.35	10
5467	300.67	261.02	211.01	10
5468	307.64	266.74	291.58	10
5469	317.65	249.83	277.68	10
5476	300.6	213.91	114.77	10
5484	257.22	269.92	252.1	10
5493	166.37	154.69	232.94	10
5500	127.02	230	298.05	10
5510	205.28	189.29	248.29	10
5511	285.5	237.67	128.15	10
5519	137.95	246.24	293.38	10
5524	147.74	170.76	196.69	10
5528	165.45	292.26	99.428	10
5536	164.88	137.84	144.03	10
5541	221.17	151.16	181.92	10
5549	98.575	110.33	154.29	10
5564	305.15	311.46	193.22	10
5568	154.14	259.28	287.32	10
5577	234	238.2	150.83	10
5580	185.2	181.58	287.93	10
5586	193.66	191.68	272.88	10
5590	294.76	127.14	191.36	10
5598	108.87	285.71	183.3	10
5603	237.49	311.81	96.783	10
5604	184.26	154.72	255.25	10
5609	123.69	209.32	103.03	10
5612	270.72	246.22	187.96	10
5614	251.11	155.14	131.59	10
5617	242.27	93.574	112.96	10
5628	277.32	140.01	189.03	10
5630	229.5	168.16	213.15	10
5633	305.24	317	306.78	10
5634	214.75	231.03	142.93	10
5636	212.95	198	283.49	10
5641	277.31	99.935	116.04	10
5642	203.06	119.88	208.59	10
5650	250.2	192.57	125.03	10
5651	101.39	151.07	173.87	10
5654	189.87	300.44	266.79	10
5656	309.27	234.28	267.38	10
5659	154.16	255.36	220.24	10
5661	125.85	147.14	241.54	10
5667	218.45	215.6	130.76	10
5686	136.1	266.14	292.56	10
5691	294.78	311.24	144.23	10
5695	219.53	280.63	192.6	10
5703	191.93	125.43	230.49	10
5717	164.18	110.16	115.79	10
5722	238.18	219.21	248.17	10
5728	242.52	132.02	187.53	10
5735	192.26	269.97	243.27	10
5738	310.97	99.457	176.25	10
5764	260.71	125.17	99.217	10
5769	95.224	114.09	206.94	10
5774	282.26	309.99	250.48	10
5780	167.68	312.17	282.46	10
5784	263.59	169.72	99.158	10
5791	182.33	188.52	307.16	10
5793	137.83	151.23	213.46	10
5796	223.51	157.21	246.38	10
5797	223.29	100.12	307.66	10
5800	114.33	179.66	116.46	10
5801	280.59	289.43	280.73	10
5802	131.38	235.22	151.13	10
5814	308.55	184.54	157.91	10
5816	208.5	123.98	296.27	10
5824	296.82	292.93	196.05	10
5847	204.49	216.87	152.64	10
5848	253.03	115.74	193.16	10
5857	315.75	303.3	286.53	10
5859	115.13	109.42	100.47	10
5864	218.2	231.73	118.8	10
5867	272.9	134.06	164.77	10
5874	134.56	284.87	146.79	10
5899	161.87	237.34	100.31	10
5909	208.97	306.27	220.85	10
5936	149.49	168.55	176.89	10
5938	240.62	287.01	117.52	10
5939	125.76	99.801	149.76	10
5942	120.57	93.608	252.99	10
5944	114.06	203.45	192.05	10
5946	205.11	230.31	195.39	10
5948	130.92	212.16	313.86	10
5950	230.42	196.3	293.1	10
5952	201.94	174.95	221.35	10
5954	114.36	183.8	161.11	10
5955	166.23	242.85	151.51	10
5959	191.63	175.75	152.64	10
5962	278.17	151.6	245.41	10
5983	265.63	253.67	170.12	10
5985	99.141	300.5	156.8	10
5992	233	273.05	129.65	10
5993	239.34	257.38	251.36	10
5994	111.51	207.16	128.16	10
6014	294.14	271.34	306.51	10
6026	262.17	224.02	296	10
6027	96.535	232.3	294.9	10
6028	289.37	174.9	305.87	10
6035	153.18	250.35	117.42	10
6042	127.52	124	232.47	10
6043	135.33	259.66	250.57	10
6065	137.5	299.3	110.28	10
6067	210.91	312.25	259.09	10
6068	106.29	226.64	176.69	10
6080	146.45	299.53	218.5	10
6081	224.26	245.23	286.38	10
6086	308.63	107.69	114.23	10
6099	102.08	168.02	161.46	10
6105	251.67	127.68	146.61	10
6106	256.95	316.31	97.751	10
6109	305	160.72	254.33	10
6124	262.8	291.92	248	10
6128	160.28	308.47	300.67	10
6137	240.14	136.06	268.47	10
6148	99.358	203.15	291.34	10
6161	107.83	253.59	225.06	10
6165	214.38	157.94	163.04	10
6169	144.46	151.52	280.16	10
6171	302.64	107.01	296.14	10
6173	283.84	123.02	221.49	10
6176	285.93	146.76	293.98	10
6180	286.68	197.93	281.15	10
6181	271.94	182.72	238.12	10
6184	215.63	138.48	167.49	10
6191	292.52	104.54	279.07	10
6210	115	234.23	213.31	10
6212	259.76	284.71	112.21	10
6218	180.46	169.25	209.78	10
6220	227.66	120.69	265.64	10
6223	122.18	252.77	211.14	10
6224	271.25	246.98	301.45	10
6226	318.14	223.87	226.62	10
6238	215.3	185.69	154.05	10
6241	161.71	162.81	124.01	10
6242	273.69	148.41	134.84	10
6243	276.43	223.54	257.26	10
6245	170.42	302.79	127.01	10
6247	216.51	277.47	212.11	10
6248	295.38	228.28	252.96	10
6251	278.02	289.86	162.93	10
6253	220.52	304.86	310.5	10
6260	285.55	191.33	249.98	10
6264	264.46	314.34	258.77	10
6265	282.33	97.292	243.6	10
6271	136.73	221.29	126.69	10
6273	150.89	301.45	195.84	10
6286	135.36	258.32	188.28	10
6290	145.33	284.99	98.698	10
6291	135	203.75	187.97	10
6294	266.96	161.14	289.91	10
6295	219.9	109.13	207.55	10
6319	294.96	216.65	161.7	10
6321	218.79	144.11	148.55	10
6322	317.49	99.498	230.4	10
6334	174.05	127.05	111.65	10
6344	311.62	198.34	120.77	10
6347	223.82	235.87	245.29	10
6350	149.71	163.13	315.2	10
6354	208.16	304.35	126.36	10
6373	248.87	178.53	187.83	10
6393	307.5	298.38	215.69	10
6395	286.23	218.8	203.23	10
6404	274.1	260.74	257.66	10
6410	149.51	177.33	233.5	10
6417	190.09	201.49	121.16	10
6423	215.15	186.33	231.15	10
6443	239.7	304.66	192.16	10
6445	166	186.73	170.89	10
6452	126.43	107.37	116.85	10
6456	235.59	254.18	166.16	10
6461	212.61	302	240.04	10
6469	286.63	310.05	124.29	10
6472	109.26	172.02	197.42	10
6473	154.7	218.65	99.646	10
6475	132.56	220.41	260.1	10
6483	115.22	173.22	178.37	10
6486	258	106.3	121.86	10
6487	278.81	269.99	180.07	10
6503	219.3	230.47	181.29	10
6507	197.31	275.18	99.825	10
6510	95.494	309.37	250.81	10
6522	119.9	219.62	156.15	10
6528	277.21	150.95	276.09	10
6549	168.77	212.93	308.29	10
6563	172.38	201.06	225	10
6567	273.01	163.77	308.79	10
6571	289.51	278.88	233.07	10
6572	258.27	235.86	105.84	10
6580	110.05	156.77	233.95	10
6597	108.5	115.36	192.04	10
6602	218.24	192.29	172.7	10
6608	200.89	285.19	274.26	10
6620	254.68	121.14	218.25	10
6638	172.94	308.67	108.06	10
6640	144.39	207.4	211.75	10
6647	231.91	189.51	93.962	10
6651	262.26	178.07	299.47	10
6653	226.61	122.24	245.73	10
6654	160.5	231.81	316.55	10
6664	165.87	226.1	200.1	10
6673	160.82	279.41	189.72	10
6676	247.7	274.44	290.14	10
6691	173.04	212.43	104.65	10
6695	237.44	112.02	156.83	10
6697	293.63	126.54	143.47	10
6708	205.58	259.62	311.99	10
6711	165.24	274.88	167.87	10
6713	312.23	118.47	182.4	10
6714	298.96	169.06	220.31	10
6717	274.39	108.74	198.94	10
6733	291.53	235.29	299.51	10
6738	161.12	126.89	260.85	10
6743	255.39	296.39	93.283	10
6749	122.58	108.74	179.42	10
6751	258.13	96.081	298.5	10
6758	204.54	107.05	306.15	10
6763	139.16	308.65	174.22	10
6767	101.89	282.39	133.1	10
6769	111.77	156.33	253.87	10
6791	237.29	186.26	173.47	10
6799	284.9	313.21	270.04	10
6803	248.96	272.49	206.37	10
6808	129.69	133.37	286.64	10
6813	108.05	196.2	222.49	10
6817	260.91	118.35	161.7	10
6818	265.43	231.26	220.06	10
6824	111.19	269.3	172.11	10
6828	113.52	223.5	93.269	10
6846	135.94	285.67	301.17	10
6850	252.44	204.65	253.09	10
6856	239.81	240.47	298.03	10
6863	162.68	126.27	317.41	10
6881	266.17	305.88	215.6	10
6883	242.25	277.25	146.88	10
6897	156.68	145.85	265.38	10
6904	279.12	173.27	212.82	10
6911	240.82	136.25	248.48	10
6921	146.24	166.99	112.05	10
6925	148.15	222.35	247.72	10
6926	180.23	309	202.24	10
6932	299.01	152.85	273.57	10
6948	235.29	126.77	95.995	10
6961	303.08	241.73	315.03	10
6967	285.46	201.89	171.28	10
6969	156.9	310.86	158.2	10
6972	247.13	225.5	309.09	10
6973	105.74	260.94	135.32	10
6978	299.82	124.63	258.43	10
6984	229.94	274.08	106.59	10
6987	228.66	286.65	312.02	10
6992	214.46	317.27	293.45	10
7006	105.12	129.97	158.13	10
7008	157.74	106.8	173.27	10
7013	201.32	148.38	185.4	10
7046	136.7	296.42	130.05	10
7048	103.07	188.12	183.88	10
7049	237	298.31	237.24	10
7056	192.62	158.74	274.26	10
7059	276.76	235.48	286.04	10
7060	237.78	300.17	155.13	10
7061	223.77	228.75	312.28	10
7070	192.82	244.65	207.84	10
7071	240.97	234.52	214.21	10
7081	232.93	303.76	214.83	10
7083	307.21	112.16	140.52	10
7092	125.77	275.85	187.41	10
7097	223.8	252.06	102.17	10
7099	266.57	144.9	260.27	10
7103	288.14	204.19	317.37	10
7108	249.42	180.43	156.52	10
7109	174.4	136.47	231	10
7115	145.18	148.8	103.79	10
7116	261.07	212.17	153.61	10
7125	181	121.62	146.06	10
7127	99.996	173.46	286.32	10
7136	220.82	137.47	274.11	10
7137	241.76	106.23	225.4	10
7139	167.03	244.09	289.17	10
7140	219.36	280.96	267.88	10
7141	103.65	248.44	205	10
7142	172.28	250.24	111.5	10
7146	269.23	108.87	224.39	10
7156	297.6	189.43	181.15	10
7159	299.18	264.74	93.691	10
7160	192.38	114.47	192.09	10
7165	184.79	289.09	311.49	10
7169	169.85	113.05	210.1	10
7174	108.83	197.53	109.37	10
7181	253.28	137.48	166.58	10
7185	318.07	137.02	139.85	10
7189	100.39	296.5	236.31	10
7193	208.88	312.02	169.17	10
7194	113.8	202.28	310.8	10
7204	290.17	307.9	297.27	10
7205	222.45	128.79	204.9	10
7214	189.46	277.08	133.07	10
7218	220.95	168.16	127.88	10
7219	219.74	161.31	109.13	10
7220	235.36	105.37	251.94	10
7232	298.16	275.62	250.81	10
7237	236.36	221.28	137.6	10
7239	265.05	313.76	121.39	10
7241	308.48	176.41	236.29	10
7261	108.62	283.93	262.46	10
7270	231.95	196.31	317.11	10
7285	251.55	212.27	128.22	10
7287	175.02	124.14	246.73	10
7289	248.96	281.47	238.02	10
7292	195.83	283.1	151.57	10
7294	312.05	206.39	210.74	10
7297	137.81	277.9	117.85	10
7298	108.97	96.472	169.03	10
7308	289.52	208.97	98.859	10
7311	120.06	116.69	158.83	10
7315	232.08	113.69	188.79	10
7325	164.88	306.34	214.78	10
7327	146.51	190.58	262.56	10
7337	215.02	297.21	292.86	10
7341	148.93	166.72	267.96	10
7346	280.81	117.54	269.37	10
7354	271.15	222.91	237.98	10
7355	95.57	256.84	172.98	10
7356	163.43	224.82	293.13	10
7364	195.57	317.84	211.55	10
7396	263.42	105.65	102.62	10
7399	120.24	133.3	254.84	10
7400	264.46	143.33	298.66	10
7402	234.22	247.12	184.82	10
7403	291.13	246.9	144.98	10
7439	234.18	100.78	173.51	10
7440	306.82	257.48	191.59	10
7452	163.55	136.69	183.84	10
7453	198.01	235.79	152.81	10
7457	256.78	224.17	253.62	10
7458	260.13	128.89	249.7	10
7462	201.25	228.66	292.69	10
7463	260.81	184.13	139.99	10
7464	266.86	103.1	150.2	10
7467	118.97	289.17	200.69	10
7470	240.58	263.43	232.33	10
7472	129.65	123.27	269.37	10
7475	154.91	133.06	111.37	10
7490	241.91	203.09	183.24	10
7506	128.4	299.41	313.59	10
7507	230.91	153.37	264.56	10
7508	153.18	120.12	188.11	10
7513	140.79	186.25	180.21	10
7517	233.4	93.119	212.83	10
7520	292.25	288.96	264.49	10
7522	311.29	153.02	202.99	10
7523	172.66	266.95	245.88	10
7549	220.51	209.92	250.65	10
7552	311.83	188.28	307.12	10
7568	192.89	185.85	195.3	10
7572	176.24	274.03	203.61	10
7577	273.57	155.99	160.6	10
7579	131.01	268.74	169.46	10
7581	114.9	310.1	234.21	10
7586	157.77	209.75	235.53	10
7593	212.12	186.82	266.93	10
7594	306.94	246.94	294.32	10
7595	183.57	317.16	132.17	10
7596	256.56	254.09	239.9	10
7602	272.41	194.02	189.44	10
7604	194.89	261.62	183.11	10
7605	113.56	178.79	230.99	10
7606	241.91	316.04	271.84	10
7608	175.32	223.75	269.59	10
7622	203.95	202.67	135.53	10
7624	207.67	223.65	257.47	10
7632	222.68	131.47	185.08	10
7634	150.9	208.75	133.17	10
7635	200.96	180.84	300.22	10
7638	222.01	289.28	149.4	10
7639	93.879	228.64	273.56	10
7646	206.02	218.67	93.025	10
7654	241.65	95.678	93.077	10
7658	208.94	263.42	129.62	10
7660	112.36	232.29	266.21	10
7672	144.4	189.98	135.51	10
7674	309.1	118.3	202.15	10
7676	201.69	155.27	217.59	10
7679	223.8	213.55	277.14	10
7687	317.28	260.35	100.96	10
7700	272.22	124.28	302.55	10
7703	172.28	300.78	146.82	10
7704	99.257	104.51	241.01	10
7708	225.76	108.85	100.24	10
7709	270.35	175.63	158.55	10
7710	221.83	207.67	148.8	10
7713	186.12	145.35	289.44	10
7728	252.35	218.15	212.51	10
7729	177.89	240.26	249.61	10
7732	248.87	153.04	255.77	10
7741	139.11	118.98	202.28	10
7742	162.89	125.79	128.2	10
7746	263.2	128.17	181.24	10
7748	171.22	292.49	178.73	10
7758	306.78	164.87	154.77	10
7760	227.35	184.24	138.16	10
7761	240.9	153.01	237.43	10
7764	107.99	299.75	101.15	10
7765	142.62	170.48	216.02	10
7778	311.15	225.18	153.62	10
7779	216.96	304.95	108.35	10
7787	212.55	242.7	261.14	10
7789	279.8	130.14	129.48	10
7793	106.24	108.73	222.75	10
7799	98.33	266.07	237.52	10
7806	290.5	167.18	112.28	10
7822	149.02	266.63	105.71	10
7825	114.53	219.86	228.49	10
7826	172.74	133.25	161.92	10
7831	286.84	181.66	267.44	10
7833	223.73	275.89	164.15	10
7852	171.49	129.44	282.45	10
7854	100.53	164.64	141.76	10
7859	185.17	189.48	165.93	10
7865	132.34	265.18	149.83	10
7866	290.19	276.3	154.69	10
7885	303.53	260.57	172.11	10
7909	193.03	222.87	234.96	10
7911	303.42	190.98	104.08	10
7912	219.08	104.11	156.39	10
7921	97.955	261.56	99.86	10
7922	303.86	279.02	219.13	10
7923	180.69	288.72	111.89	10
7925	288.23	119.94	291.09	10
7927	195.21	126.95	96.585	10
7932	315.22	117.59	247.79	10
7945	98.556	222.4	128.65	10
7950	230.56	248.93	267.21	10
7952	136.76	250.99	312.77	10
7956	139.7	240.94	128.94	10
7966	153.37	99.496	92.803	10
7967	140.41	111.49	142.78	10
7969	264.96	284.07	176.93	10
7972	101	282.92	290.49	10
7983	290.52	257.6	246.69	10
7987	267.16	276.03	195.16	10
7990	217	296.86	204.91	10
7995	312.06	295.49	183.36	10
8015	143.17	112.62	221.59	10
8029	158.41	314.97	264.97	10
8030	243.09	147.55	101.42	10
8031	280.37	277.91	133.45	10
8045	303.93	146.86	111.27	10
8052	288.77	255.08	296.19	10
8071	162.27	191.36	274.84	10
8079	133.27	177.45	123.1	10
8081	197.66	171.1	240.5	10
8102	185.89	104.69	175.9	10
8109	93.963	222.64	97.644	10
8121	139.27	274.5	237.75	10
8127	260.15	104.72	241.72	10
8132	309.5	310.72	157.77	10
8135	143.52	257.03	270.53	10
8136	179.64	151.09	167.75	10
8158	212.31	212.6	297.14	10
8166	149.15	245.49	253.48	10
8173	257.31	156.31	112.61	10
8176	242.16	248.49	109.25	10
8189	146.92	275.18	159.18	10
8192	316.75	124.92	229.25	10
8195	154.3	251.9	188.01	10
8199	209.4	129.98	239.11	10
8200	234.15	268.28	272.41	10
8201	211.29	155.66	267.72	10
8222	198.91	163.47	313.91	10
8229	94.495	283.3	169.61	10
8242	174.25	99.108	143.4	10
8271	275.52	138.02	95.253	10
8277	243.43	187.14	256.56	10
8279	259.59	146.39	240.03	10
8294	193.91	205.29	244.45	10
8310	184.72	98.922	240.84	10
8313	113.48	162.42	272.84	10
8314	128.75	233.91	227.83	10
8315	316.41	122.27	125.92	10
8317	206.72	152.15	121.23	10
8319	246.62	286.99	169.51	10
8320	118.73	209.32	269.98	10
8331	294.6	222.97	314.96	10
8337	143.01	130.87	94.13	10
8348	180.02	308.85	303.87	10
8364	261.8	206.47	286.33	10
8370	165.54	224.31	158.98	10
8381	218.2	250.1	147.89	10
8388	256.69	302.62	273.16	10
8389	294.5	185.43	208.84	10
8390	124.62	254.21	280.77	10
8391	302.83	108.33	160.28	10
8393	118.61	157.77	166.13	10
8407	285.9	136.38	206.72	10
8414	124.89	277.45	215.77	10
8424	202.25	129.38	179.25	10
8426	302.22	223.41	214.52	10
8432	207.48	294.9	185.44	10
8437	246.58	177	207.66	10
8452	225.09	243.18	222.74	10
8484	209.47	121.91	257.41	10
8497	223.92	211.49	185.59	10
8517	161.36	197.9	96.366	10
8534	306.05	274.15	110.09	10
8549	100.98	247.33	273.17	10
8572	147.4	203.34	172.18	10
8581	254.79	214.96	192.91	10
8586	220.58	138.05	303.77	10
8587	186.69	168.73	187.03	10
8589	181.52	281.35	277.43	10
8593	228.25	179.79	306.46	10
8597	270.21	283.79	231.3	10
8599	119.91	180.46	212.1	10
8601	221.87	213.48	218.77	10
8612	275.78	269.43	215.76	10
8621	281.27	97.308	184.04	10
8630	272.73	184.51	123.83	10
8649	162.37	146.51	287.51	10
8651	118.9	301.26	175.7	10
8657	304.19	188.91	286.41	10
8659	210.8	276.76	246.45	10
8664	297.96	153.07	236.52	10
8670	176.29	152.9	133.45	10
8677	123.32	250.64	237.36	10
8680	307.4	296.58	93.863	10
8686	158.76	156.85	142.96	10
8688	145.76	188.22	206.25	10
8689	276.65	99.862	315.67	10
8695	288.25	144.06	172.78	10
8704	263.42	188.09	255.4	10
8708	273.42	238	92.816	10
8717	220.27	261.15	177.21	10
8719	121.85	214.07	177	10
8723	228.19	125.25	117.79	10
8725	184.82	220.91	154.9	10
8729	185.81	227.63	199.88	10
8732	157.9	294.62	285.68	10
8734	140.96	107.82	162.43	10
8744	297.34	149.43	216.87	10
8745	311.98	318.2	210.76	10
8750	286.93	268.29	109.74	10
8754	255.91	198.79	216.82	10
8757	250.86	250.49	221.07	10
8759	301.72	282.14	139.28	10
8760	128	288.28	264.78	10
8772	238.24	122.02	282.58	10
8781	208.39	246.96	184.81	10
8782	193.99	259.12	226.56	10
8785	159.96	119.59	150.56	10
8796	265.9	236.74	124.3	10
8797	138.51	287.49	204.64	10
8815	247.28	268.36	114.73	10
8820	133.78	255.02	116.03	10
8824	129.86	143.27	269.26	10
8828	313.14	99.661	196.13	10
8829	104.06	241.47	131.11	10
8833	308.61	98.704	248.3	10
8834	278.52	116.65	240.3	10
8851	195.72	157.43	105.38	10
8856	304.4	110.37	219.9	10
8867	131.97	122.66	128.49	10
8872	120.86	101.12	309.23	10
8873	236.52	178.58	120.89	10
8879	174.07	202.85	244.85	10
8883	276.03	242.39	157.29	10
8884	131.54	223.22	210.9	10
8895	155.16	257.23	162.32	10
8900	249.57	257.7	300.92	10
8911	196.38	161.97	293.74	10
8915	157.36	226.99	179.87	10
8917	121.02	252.26	175.72	10
8924	231.73	309.07	287.58	10
8925	272.44	214.21	310.08	10
8931	96.115	171.58	118.17	10
8937	196.66	156.42	151.77	10
8943	206.83	212.56	114.76	10
8944	150.03	282.16	134.41	10
8949	217.94	139.79	254.46	10
8950	278.49	275.27	294.7	10
8952	177.86	168.53	241.68	10
8959	161.4	216.48	217.05	10
8960	95.797	302.72	176.39	10
8965	134.58	226.02	101.39	10
8968	267.2	284.3	147.06	10
8973	105.23	279.99	102.55	10
8982	137.19	121.97	176.06	10
8988	169.59	276.19	309.86	10
9008	158.52	264.77	203.14	10
9009	189.91	303.16	226.03	10
9014	278.3	305.33	315.97	10
9015	258.36	141.38	195.46	10
9028	286.12	161.39	145.57	10
9036	248.29	306.58	173.15	10
9040	284.52	241.16	237.02	10
9059	139.93	139.38	197.48	10
9060	148.28	185.57	161.68	10
9064	107.81	133.07	182.17	10
9077	274.58	133.12	284.76	10
9079	285.6	163.8	174.54	10
9084	114.99	212.01	210.1	10
9085	221.02	269.73	145.32	10
9091	167.32	106.38	191.41	10
9105	97.851	124.07	102.48	10
9107	270.73	195.61	159.29	10
9118	300.26	293.03	159.01	10
9134	103.09	100.18	260.15	10
9137	168.3	220.95	251.08	10
9144	273.56	182.67	315.32	10
9145	208.84	176.77	187.36	10
9147	187.5	152.27	200.19	10
9150	110.83	272.89	304.78	10
9151	183.3	131.94	213.67	10
9164	276.6	297.32	200.83	10
9165	200.94	110.63	240.47	10
9176	253.58	119.96	295.24	10
9179	206.43	307.45	277.98	10
9189	279.55	111.31	163.46	10
9190	233.9	121.67	139.67	10
9191	263.86	198.83	111.83	10
9204	176.54	112.76	228.94	10
9205	264.78	249.75	206.73	10
9206	236.25	185	277.66	10
9212	142.64	286.34	185.1	10
9213	171.76	193.11	124.31	10
9217	220.94	149.97	218.84	10
9225	232.56	225.94	230.2	10
9227	160.04	267.35	125.42	10
9228	296.94	240.81	197.23	10
9229	228.58	308.88	170.65	10
9243	148.05	234.68	197.16	10
9245	196.99	267.29	282.27	10
9250	252.61	241.2	179.02	10
9260	219.85	124.75	153.57	10
9269	291.8	308.13	208.04	10
9271	256.51	251.45	259.73	10
9272	250.9	234.65	140.73	10
9273	151.49	198.32	290.18	10
9274	306.38	168.62	317.8	10
9276	259.24	284.1	266.06	10
9277	310.59	212.81	247.93	10
9279	198.59	124.41	130.53	10
9286	95.572	170.56	234.14	10
9303	260.5	141.55	215.93	10
9311	256.27	161.25	194.66	10
9316	312.89	312.33	117.06	10
9320	103.51	143.06	287.77	10
9328	153.99	122.14	242.78	10
9331	120.53	248.91	258.65	10
9340	244.96	168.78	225.82	10
9342	159.54	167.9	159.61	10
9363	116.26	202.8	239.49	10
9367	103.54	131.71	202.43	10
9371	169.19	93.658	303.12	10
9373	290.8	194.06	300.34	10
9375	218.68	233.02	98.846	10
9378	231.4	183.35	196.29	10
9386	302.88	208.94	285.17	10
9407	180.25	201.94	149.85	10
9408	101	247.12	307.65	10
9415	160.18	102.37	223.99	10
9417	164.49	148.56	96.622	10
9421	104.04	124.11	267.05	10
9422	216.83	196.59	121.46	10
9424	315.82	313.89	176.48	10
9426	241.76	137.51	130.32	10
9429	105.31	244.6	185.44	10
9441	300.15	229.17	233.56	10
9443	116.82	108.99	134.4	10
9450	244.75	167.82	171.46	10
9455	114.93	155.34	187.95	10
9457	109.36	124.04	240.85	10
9469	174.79	290.69	247.09	10
9470	277.45	252.68	275.85	10
9479	193.79	301.13	161.86	10
9483	310.96	281.91	304.19	10
9488	147.54	278.34	219.95	10
9491	307.23	180.54	255.82	10
9495	282.66	171.34	93.353	10
9502	158.56	243.86	271.05	10
9504	271.71	119.1	114.89	10
9515	315.15	100.18	96.875	10
9520	286.07	104.38	214.58	10
9523	189.53	247.83	306.15	10
9527	128.25	303.44	211.18	10
9528	131.17	194.62	275.37	10
9530	209.22	234.16	214.58	10
9534	160.24	144.51	309.57	10
9545	293.68	239.4	99.339	10
9546	113.77	148.07	108.87	10
9550	132.3	235.86	247.42	10
9559	127.73	310.66	140.86	10
9562	192.31	172.47	259.73	10
9565	99.261	269.2	118.3	10
9577	175.72	308.84	255.43	10
9586	273.31	265.27	238.2	10
9594	96.469	314.09	109	10
9601	294.92	143.46	253.8	10
9604	183.48	136.16	180.49	10
9608	130.05	203.47	162.16	10
9613	128.69	102.09	199.82	10
9616	272.38	307.51	284.56	10
9632	225	292.48	252.53	10
9655	275.13	309.75	102.89	10
9657	149.06	210.91	305.53	10
9662	182.74	114.67	275.03	10
9672	157.58	158.75	209.81	10
9673	220.69	225.14	161.09	10
9675	108.33	219.35	283.81	10
9680	310.77	304.07	247.14	10
9682	235.12	277.96	219.72	10
9685	252.44	249.99	155.55	10
9687	243.04	98.688	196.21	10
9721	282.68	203.4	116.81	10
9723	158.73	176.34	138.43	10
9732	110.23	182.11	140.91	10
9737	202.87	268.79	263	10
9747	313.69	145.44	158.33	10
9770	285.44	139.23	112.58	10
9774	247.04	118.84	261	10
9783	290.46	164.95	287.01	10
9787	156.42	235.5	220.73	10
9788	178.43	222.57	181.98	10
9789	153.74	273.92	273.7	10
9793	207.13	244.83	231.36	10
9796	141.07	174.85	251.47	10
9797	204.54	171.65	117	10
9801	303.51	123.52	278.08	10
9802	285.28	206.48	263.04	10
9810	185.2	175.02	100.55	10
9821	270.77	187.42	93.23	10
9830	278.85	256.83	126.97	10
9842	101.26	212.64	154.16	10
9848	162.93	210.97	278.7	10
9849	199.28	287.58	119.18	10
9854	227.3	227.25	263	10
9855	99.428	138.14	138.71	10
9864	117.8	269.26	232.58	10
9873	110.89	187.9	297.21	10
9876	142.74	93.523	284.1	10
9883	292.07	102.39	102.77	10
9887	194.86	106.46	288.66	10
9889	196.08	262.09	144.87	10
9895	145.07	116.01	114.91	10
9902	94.781	221.84	254.77	10
9907	296.76	93.652	230.24	10
9910	158.27	107.46	134.75	10
9912	151.61	132.01	278.92	10
9914	183.29	113.29	317.65	10
9915	120.01	249.3	301.68	10
9916	223.76	171.01	270.71	10
9920	231.03	155.04	302.37	10
9922	118.58	273.52	286.36	10
9939	254.32	174.49	281.47	10
9941	219.93	113.99	283.24	10
9942	299.51	210.64	143.17	10
9950	168.75	94.051	104.38	10
9955	275.51	294.47	299.41	10
9956	210.67	210.69	170.62	10
9965	93.874	293.76	305.71	10
9968	284.93	217.87	183.29	10
9969	147.26	203.03	151.98	10
9973	183.8	245.08	142.23	10
9986	139	302.47	155.2	10
